EEG Data File
Created on: 2025-08-31 13:59:41
Sample Rate: 512Hz
Number of Samples: 1000

Sample Index,EEG Value (uV)
0,-519.612
1,-382.872
2,1027.356
3,-1054.704
4,424.668
5,-784.32
6,-738.912
7,726.528
8,919.5120000000001
9,-950.472
10,667.188
11,-940.152
12,1018.5840000000001
13,1021.6800000000001
14,538.7040000000001
15,-447.372
16,168.732
17,-223.428
18,-742.524
19,612.492
20,-455.628
21,-185.244
22,-372.036
23,798.768
24,918.48
25,68.628
26,842.628
27,616.62
28,-176.988
29,816.312
30,665.124
31,276.06
32,107.84400000000001
33,-196.596
34,646.548
35,547.992
36,-125.904
37,978.852
38,714.144
39,621.78
40,-162.54
41,1022.712
42,-327.144
43,775.032
44,-904.032
45,732.72
46,-215.68800000000002
47,-312.696
48,1020.1320000000001
49,718.272
50,-111.456
51,166.668
52,1023.744
53,-712.596
54,-718.788
55,615.072
56,826.116
57,-1044.384
58,-623.844
59,14.964
60,-1046.964
61,194.532
62,223.428
63,105.78
64,-117.132
65,359.136
66,-168.216
67,573.792
68,543.3480000000001
69,-189.888
70,758.52
71,385.968
72,406.092
73,-551.088
74,506.712
75,457.176
76,-707.952
77,182.66400000000002
78,-59.856
79,888.552
80,205.368
81,832.308
82,371.004
83,373.584
84,224.976
85,715.692
86,325.596
87,-723.948
88,-129.516
89,-854.496
90,-189.372
91,533.544
92,-18.060000000000002
93,741.4920000000001
94,396.288
95,-912.804
96,147.576
97,1017.552
98,750.264
99,269.868
100,-672.3480000000001
101,390.612
102,-561.408
103,1023.2280000000001
104,-1052.64
105,-1056.768
106,-24.252000000000002
107,-335.40000000000003
108,697.116
109,-258.516
110,733.7520000000001
111,837.984
112,64.5
113,321.468
114,-902.484
115,-57.792
116,150.156
117,-925.188
118,-114.552
119,627.456
120,-1032.0
121,-928.284
122,-17.544
123,-447.88800000000003
124,653.256
125,1011.876
126,-335.40000000000003
127,-121.26
128,-574.308
129,-350.36400000000003
130,-835.9200000000001
131,-809.088
132,922.6080000000001
133,-232.716
134,519.096
135,-556.248
136,527.352
137,233.232
138,31.476
139,-444.276
140,919.5120000000001
141,-31.992
142,4.128
143,259.548
144,-665.124
145,736.8480000000001
146,746.136
147,129.516
148,-5.676
149,1050.06
150,23.22
151,461.82
152,642.936
153,47.472
154,604.236
155,-748.2
156,709.5
157,-817.344
158,1054.188
159,857.592
160,427.248
161,583.08
162,-716.208
163,-89.268
164,198.144
165,-352.428
166,393.192
167,-150.156
168,-16.512
169,-505.68
170,-643.452
171,-512.904
172,261.612
173,-815.28
174,-476.784
175,351.396
176,-244.584
177,-327.66
178,674.412
179,1029.936
180,-622.812
181,-87.72
182,415.38
183,811.152
184,879.78
185,-408.156
186,-178.536
187,494.844
188,904.032
189,-1025.292
190,987.1080000000001
191,1042.32
192,882.36
193,554.184
194,-821.472
195,502.06800000000004
196,-591.852
197,400.932
198,-874.62
199,168.732
200,-113.004
201,-63.984
202,999.4920000000001
203,839.0160000000001
204,-814.764
205,-668.736
206,-24.768
207,-76.368
208,19.092
209,406.608
210,638.292
211,71.724
212,-635.712
213,637.26
214,-665.124
215,-520.644
216,-782.772
217,444.276
218,217.23600000000002
219,-511.872
220,-602.172
221,-408.672
222,919.5120000000001
223,-878.748
224,-318.88800000000003
225,937.056
226,-85.14
227,-1054.188
228,-982.98
229,606.3000000000001
230,363.264
231,114.036
232,432.92400000000004
233,-764.712
234,-805.9920000000001
235,825.6
236,956.664
237,-508.26
238,763.164
239,-374.616
240,120.744
241,75.336
242,-775.032
243,-537.1560000000001
244,786.9
245,-578.952
246,263.676
247,328.692
248,-35.604
249,669.2520000000001
250,-626.94
251,604.236
252,-117.132
253,21.156
254,-374.1
255,1020.1320000000001
256,364.812
257,751.296
258,815.28
259,718.788
260,-251.808
261,-334.884
262,-225.49200000000002
263,449.952
264,58.824
265,266.772
266,1038.192
267,-70.69200000000001
268,-1050.576
269,-389.58
270,-56.244
271,-840.5640000000001
272,-1024.26
273,-557.796
274,-231.684
275,-1039.74
276,-69.66
277,-446.856
278,-667.7040000000001
279,-90.816
280,-477.81600000000003
281,658.416
282,-607.8480000000001
283,813.732
284,-868.428
285,-805.476
286,-47.988
287,-162.54
288,554.184
289,151.704
290,-697.6320000000001
291,1002.072
292,350.36400000000003
293,-207.948
294,-970.08
295,1033.548
296,-404.028
297,86.688
298,755.94
299,-667.7040000000001
300,685.764
301,519.096
302,-50.568
303,49.02
304,-867.912
305,907.128
306,227.556
307,188.34
308,-923.124
309,-839.532
310,1046.964
311,-10.836
312,-911.256
313,152.736
314,933.4440000000001
315,1035.096
316,913.836
317,-240.972
318,-566.052
319,987.624
320,579.984
321,966.984
322,893.196
323,727.044
324,-82.044
325,-106.296
326,-332.82
327,-53.148
328,-57.276
329,-415.38
330,405.576
331,-363.264
332,-976.788
333,34.572
334,484.524
335,-260.064
336,-1030.968
337,-398.35200000000003
338,-60.888000000000005
339,-579.984
340,-722.916
341,185.76
342,407.124
343,275.028
344,-150.156
345,-652.74
346,-880.812
347,-1003.62
348,-139.836
349,103.2
350,979.884
351,-829.7280000000001
352,889.5840000000001
353,52.116
354,-598.5600000000001
355,-568.116
356,-246.648
357,171.312
358,933.96
359,-483.492
360,-425.7
361,-700.212
362,660.996
363,-906.096
364,-950.472
365,330.75600000000003
366,-964.9200000000001
367,-709.5
368,163.056
369,981.948
370,-593.4
371,6.708
372,510.84000000000003
373,-136.74
374,-1013.94
375,-949.956
376,-637.7760000000001
377,-458.208
378,-972.144
379,-867.912
380,975.24
381,168.732
382,898.8720000000001
383,791.544
384,-578.952
385,-275.028
386,421.572
387,-698.664
388,-244.584
389,683.7
390,-568.6320000000001
391,484.524
392,-740.976
393,-749.748
394,154.8
395,-574.308
396,-722.4
397,-294.12
398,-582.564
399,142.416
400,-711.564
401,684.216
402,-849.336
403,-724.464
404,-459.75600000000003
405,633.648
406,-112.488
407,-173.892
408,-1014.972
409,320.952
410,114.036
411,-832.8240000000001
412,770.388
413,476.784
414,398.35200000000003
415,708.984
416,-910.224
417,-652.74
418,-51.6
419,859.14
420,-665.124
421,-495.36
422,947.892
423,485.04
424,-132.612
425,334.368
426,-1034.064
427,304.956
428,-1014.456
429,217.23600000000002
430,-454.08000000000004
431,-447.372
432,-611.46
433,-647.58
434,-232.716
435,892.6800000000001
436,-238.90800000000002
437,-351.396
438,-89.268
439,820.44
440,-121.77600000000001
441,495.87600000000003
442,-399.90000000000003
443,-305.988
444,739.9440000000001
445,-43.86
446,573.792
447,-279.672
448,-446.34000000000003
449,-148.092
450,-421.05600000000004
451,-861.72
452,689.376
453,-635.712
454,-38.184
455,959.76
456,192.984
457,-0.516
458,-69.66
459,805.476
460,412.8
461,-804.96
462,588.24
463,231.168
464,-579.984
465,995.364
466,667.188
467,455.112
468,-605.784
469,299.28000000000003
470,-118.164
471,492.78000000000003
472,228.588
473,568.6320000000001
474,15.48
475,-556.764
476,138.288
477,-277.608
478,730.14
479,-552.12
480,313.728
481,-107.84400000000001
482,-465.94800000000004
483,478.332
484,118.164
485,103.71600000000001
486,506.196
487,671.832
488,-612.492
489,-565.02
490,443.76
491,-1046.448
492,-174.40800000000002
493,343.656
494,-370.488
495,415.38
496,404.028
497,11.868
498,517.032
499,67.596
500,555.732
501,-763.6800000000001
502,0.0
503,-849.852
504,-295.668
505,-212.076
506,526.836
507,194.01600000000002
508,-204.336
509,-259.548
510,-955.116
511,897.84
512,-624.876
513,-448.92
514,329.724
515,-148.608
516,-36.120000000000005
517,987.1080000000001
518,671.316
519,1001.0400000000001
520,-517.032
521,521.676
522,777.612
523,-909.192
524,163.056
525,-155.832
526,1022.196
527,102.684
528,-61.404
529,666.1560000000001
530,-81.012
531,-663.576
532,-216.72
533,599.076
534,493.296
535,422.604
536,-549.024
537,1000.524
538,-445.824
539,481.944
540,792.576
541,-623.844
542,542.316
543,332.30400000000003
544,-584.628
545,908.676
546,-1027.872
547,831.792
548,-597.0120000000001
549,363.78000000000003
550,536.64
551,-676.476
552,-851.4
553,-70.176
554,331.788
555,609.912
556,-549.54
557,-699.1800000000001
558,689.376
559,-167.70000000000002
560,795.1560000000001
561,470.592
562,-488.652
563,-853.464
564,-605.784
565,148.608
566,-873.072
567,129.0
568,621.78
569,-682.152
570,565.5360000000001
571,-1023.744
572,423.636
573,-970.596
574,469.04400000000004
575,-365.32800000000003
576,-466.464
577,-924.1560000000001
578,-936.5400000000001
579,-778.128
580,1010.328
581,-567.6
582,426.732
583,-479.36400000000003
584,-56.244
585,-317.856
586,-29.928
587,-848.82
588,-530.964
589,-879.78
590,-397.32
591,666.672
592,-446.34000000000003
593,-1000.008
594,-345.204
595,51.084
596,-950.988
597,-858.1080000000001
598,-684.732
599,-1002.072
600,-969.048
601,107.84400000000001
602,-707.952
603,460.272
604,-869.976
605,-318.88800000000003
606,766.26
607,-535.092
608,74.304
609,-183.18
610,-7.74
611,95.976
612,51.6
613,834.3720000000001
614,859.6560000000001
615,-769.8720000000001
616,1017.0360000000001
617,394.74
618,-569.148
619,324.564
620,-349.848
621,1006.716
622,-833.34
623,-18.060000000000002
624,-796.7040000000001
625,191.436
626,822.504
627,603.72
628,915.9
629,-653.256
630,-582.048
631,-55.212
632,-731.688
633,-312.696
634,-346.236
635,-321.98400000000004
636,-887.004
637,768.3240000000001
638,379.776
639,-782.772
640,670.284
641,882.36
642,-959.76
643,-247.68
644,-721.884
645,-187.308
646,-911.772
647,-899.388
648,-1026.84
649,-494.32800000000003
650,476.26800000000003
651,293.604
652,-358.62
653,-411.252
654,331.272
655,284.31600000000003
656,-695.568
657,938.0880000000001
658,-380.29200000000003
659,-64.5
660,-1039.74
661,-1022.712
662,723.948
663,235.296
664,712.596
665,-361.2
666,-911.256
667,-442.728
668,-498.97200000000004
669,-290.508
670,304.44
671,500.52000000000004
672,174.924
673,-929.316
674,1017.0360000000001
675,597.528
676,-403.512
677,383.38800000000003
678,-946.86
679,-243.55200000000002
680,-844.176
681,77.4
682,-823.02
683,-174.924
684,692.988
685,221.364
686,543.864
687,-978.336
688,899.388
689,600.624
690,-150.156
691,147.576
692,-66.56400000000001
693,-951.504
694,769.356
695,489.684
696,-542.316
697,890.1
698,913.836
699,455.112
700,-62.952
701,-242.00400000000002
702,591.852
703,-429.82800000000003
704,985.5600000000001
705,-559.344
706,320.952
707,-727.044
708,-291.54
709,742.524
710,1038.708
711,921.0600000000001
712,206.4
713,-1014.972
714,722.916
715,962.856
716,270.384
717,-524.772
718,772.452
719,302.892
720,-713.628
721,-923.64
722,782.256
723,-734.784
724,164.088
725,58.308
726,-1030.968
727,959.244
728,-537.672
729,-278.124
730,-850.884
731,177.50400000000002
732,722.4
733,413.832
734,-952.02
735,-975.24
736,674.412
737,338.496
738,-626.424
739,-726.0120000000001
740,-1039.224
741,756.972
742,831.2760000000001
743,108.36
744,-273.48
745,456.66
746,-796.7040000000001
747,259.548
748,61.404
749,-537.1560000000001
750,409.188
751,723.432
752,517.032
753,269.868
754,371.004
755,-191.436
756,-657.9
757,169.248
758,-670.284
759,951.504
760,224.976
761,-276.576
762,-959.76
763,-780.192
764,665.124
765,693.504
766,-753.876
767,220.332
768,-23.22
769,172.344
770,-1017.0360000000001
771,-790.5120000000001
772,-388.03200000000004
773,-93.396
774,-221.364
775,-177.50400000000002
776,681.636
777,-514.452
778,-762.1320000000001
779,689.376
780,825.6
781,-360.168
782,-201.24
783,246.132
784,-902.484
785,-762.648
786,665.64
787,-847.788
788,169.764
789,744.588
790,655.836
791,916.932
792,500.004
793,-554.7
794,279.672
795,504.648
796,-66.56400000000001
797,-773.484
798,-699.696
799,802.8960000000001
800,354.492
801,-416.41200000000003
802,381.324
803,-987.1080000000001
804,-197.62800000000001
805,759.552
806,-364.296
807,862.236
808,810.636
809,379.26
810,-429.312
811,406.608
812,144.996
813,-463.368
814,186.276
815,-999.4920000000001
816,-251.292
817,-684.216
818,307.02
819,607.332
820,-377.196
821,-995.364
822,-514.452
823,-92.364
824,-660.996
825,162.54
826,521.16
827,248.196
828,-702.2760000000001
829,237.876
830,-168.216
831,722.916
832,-364.812
833,-327.144
834,-25.8
835,208.464
836,683.7
837,-1043.352
838,-922.6080000000001
839,17.544
840,-342.108
841,-645.0
842,353.46000000000004
843,-484.00800000000004
844,-873.072
845,-610.944
846,-912.288
847,822.504
848,205.368
849,704.34
850,-35.604
851,-635.712
852,577.404
853,-356.04
854,947.376
855,415.38
856,679.056
857,-506.196
858,878.232
859,657.384
860,-568.6320000000001
861,149.124
862,740.46
863,-685.248
864,13.416
865,-17.544
866,-593.916
867,213.108
868,586.692
869,844.176
870,270.90000000000003
871,13.932
872,-535.6080000000001
873,563.472
874,-597.528
875,-809.088
876,-594.948
877,121.77600000000001
878,-187.308
879,-198.66
880,-157.38
881,-93.396
882,1045.932
883,90.3
884,-802.38
885,-204.336
886,-736.332
887,-890.1
888,-986.076
889,-310.632
890,-281.736
891,895.26
892,954.6
893,-594.948
894,793.6080000000001
895,-920.028
896,208.98000000000002
897,-324.564
898,-832.8240000000001
899,-648.612
900,552.636
901,-658.416
902,816.312
903,510.84000000000003
904,426.216
905,455.628
906,-715.692
907,657.384
908,-604.236
909,212.076
910,906.6120000000001
911,-7.74
912,-443.244
913,-357.588
914,975.24
915,117.132
916,685.248
917,210.52800000000002
918,875.136
919,-240.45600000000002
920,634.6800000000001
921,74.82000000000001
922,-560.892
923,798.2520000000001
924,-674.412
925,-815.28
926,748.716
927,1020.648
928,-744.072
929,-956.148
930,779.16
931,-423.12
932,-302.892
933,855.0120000000001
934,602.688
935,-626.94
936,-1004.652
937,-770.388
938,-273.48
939,-685.248
940,242.52
941,-981.948
942,-142.93200000000002
943,796.7040000000001
944,-604.236
945,-511.872
946,706.404
947,-187.824
948,119.712
949,-926.736
950,291.54
951,-256.968
952,-439.632
953,-363.78000000000003
954,-521.16
955,986.592
956,282.76800000000003
957,-215.172
958,362.748
959,362.232
960,-44.376000000000005
961,446.856
962,632.616
963,-197.62800000000001
964,496.392
965,937.572
966,-69.144
967,212.076
968,866.364
969,-46.44
970,151.18800000000002
971,786.384
972,922.092
973,373.584
974,-1016.004
975,-968.532
976,558.312
977,279.156
978,-645.0
979,508.776
980,-399.384
981,-502.06800000000004
982,-203.82
983,-447.372
984,5.16
985,310.116
986,77.916
987,925.7040000000001
988,739.428
989,711.564
990,1028.904
991,-19.092
992,268.32
993,817.344
994,211.044
995,563.988
996,-625.392
997,491.748
998,-116.616
999,926.22
